framboise 1
Integration time [ms]:  40,000
Averaging Nr. [scans]: 100
Smoothing Nr. [pixels]: 1
Data measured with spectrometer [name]: 1204051U1
Wave   ;Sample   ;Dark     ;Reference;Absorbance
[nm]   ;[counts] ;[counts] ;[counts] ;[A.U]

 250,00;    5,881;   -4,419;  339,361; 1,53578
 251,00;    7,285;   -8,219;  353,977; 1,36848
 252,00;    7,948;   -1,484;  378,698; 1,61445
 253,00;    4,718;    0,469;  399,117; 1,97322
 254,00;    2,364;   -5,730;  419,720; 1,73757
 255,00;    3,537;   -9,724;  443,501; 1,53417
 256,00;    5,617;   -8,511;  472,887; 1,53369
 257,00;    8,780;   -5,979;  497,945; 1,53328
 258,00;    7,109;   -7,524;  517,234; 1,55672
 259,00;    7,453;  -15,501;  532,488; 1,37983
 260,00;    7,135;  -11,344;  549,869; 1,49183
 261,00;    6,940;   -3,158;  571,718; 1,75537
 262,00;    6,703;   -6,828;  587,864; 1,64486
 263,00;    7,202;  -10,804;  611,136; 1,53834
 264,00;    8,175;   -9,547;  626,206; 1,55483
 265,00;    6,540;  -10,752;  647,957; 1,58085
 266,00;    5,146;   -8,928;  668,909; 1,68613
 267,00;    2,605;   -8,114;  679,811; 1,81018
 268,00;    4,608;   -6,268;  686,037; 1,80382
 269,00;    8,017;   -6,208;  695,499; 1,69384
 270,00;    8,574;   -5,784;  703,523; 1,69376
 271,00;    6,339;   -8,091;  713,054; 1,69883
 272,00;    4,240;   -6,623;  723,454; 1,84263
 273,00;    3,547;    0,769;  738,597; 2,42433
 274,00;    5,244;   -3,424;  784,306; 1,96923
 275,00;    5,554;  -10,609;  822,517; 1,71217
 276,00;    5,990;   -2,572;  840,981; 2,00815
 277,00;    6,930;    5,389;  865,197; 3,28024
 278,00;    3,745;   -5,259;  881,508; 1,99343
 279,00;    4,194;   -7,715;  877,757; 1,88038
 280,00;    6,259;   -5,077;  882,366; 1,90499
 281,00;    7,995;   -1,095;  882,887; 1,99060
 282,00;    9,303;   -2,123;  907,198; 1,91614
 283,00;    6,413;   -2,028;  963,539; 2,06023
 284,00;    4,783;   -4,774; 1003,858; 2,02344
 285,00;    8,418;   -6,294; 1030,443; 1,84821
 286,00;    7,479;   -4,473; 1056,778; 1,95283
 287,00;    7,655;   -7,254; 1075,054; 1,86090
 288,00;   10,309;   -4,804; 1110,464; 1,87093
 289,00;   11,466;   -0,643; 1123,937; 1,97479
 290,00;   11,227;   -9,935; 1124,593; 1,73005
 291,00;   11,120;  -13,368; 1156,557; 1,68208
 292,00;   10,470;   -1,568; 1167,697; 2,02417
 293,00;   11,532;    5,000; 1166,978; 2,25062
 294,00;   10,635;   -0,688; 1184,942; 2,02830
 295,00;    9,689;   -5,542; 1205,257; 1,90136
 296,00;   11,254;   -2,429; 1198,326; 1,94331
 297,00;   12,600;   -3,866; 1174,519; 1,85663
 298,00;   10,866;   -8,153; 1159,226; 1,78804
 299,00;   17,691;   -7,784; 1170,520; 1,66517
 300,00;   21,359;   -8,965; 1206,563; 1,60354
 301,00;   18,913;   -7,995; 1240,041; 1,66636
 302,00;   20,683;   -8,079; 1290,273; 1,65557
 303,00;   21,200;   -8,647; 1328,858; 1,65146
 304,00;   21,779;   -5,528; 1360,440; 1,69922
 305,00;   22,483;   -6,839; 1377,641; 1,67485
 306,00;   23,125;   -0,771; 1350,270; 1,75235
 307,00;   21,270;   -7,630; 1329,141; 1,66797
 308,00;   19,208;   -9,608; 1351,960; 1,67534
 309,00;   17,556;  -13,471; 1385,899; 1,65427
 310,00;   19,581;   -3,126; 1432,717; 1,80551
 311,00;   22,854;    3,547; 1470,751; 1,88423
 312,00;   25,890;   -4,152; 1497,388; 1,69979
 313,00;   25,574;  -12,910; 1521,397; 1,60095
 314,00;   22,798;   -9,806; 1530,438; 1,67433
 315,00;   21,370;  -10,010; 1526,407; 1,69112
 316,00;   22,677;  -13,851; 1527,620; 1,62531
 317,00;   23,352;   -9,200; 1529,908; 1,67571
 318,00;   21,591;   -6,276; 1521,969; 1,73911
 319,00;   22,729;  -13,277; 1492,615; 1,62194
 320,00;   25,677;   -9,674; 1471,985; 1,62235
 321,00;   23,407;   -1,482; 1451,370; 1,76623
 322,00;   18,626;  -11,270; 1463,264; 1,69335
 323,00;   20,329;  -15,894; 1487,195; 1,61801
 324,00;   22,162;   -5,753; 1496,498; 1,73097
 325,00;   19,255;   -8,363; 1490,575; 1,73465
 326,00;   19,145;   -7,536; 1472,959; 1,74465
 327,00;   20,927;   -7,151; 1463,095; 1,72027
 328,00;   18,707;  -10,560; 1424,254; 1,69085
 329,00;   16,861;   -8,841; 1381,970; 1,73333
 330,00;   16,987;   -9,201; 1367,183; 1,72099
 331,00;   16,616;   -6,159; 1363,889; 1,78084
 332,00;   17,587;   -8,886; 1366,006; 1,71546
 333,00;   15,315;  -13,907; 1364,855; 1,67378
 334,00;   13,810;  -13,652; 1343,099; 1,69377
 335,00;   15,285;   -3,970; 1322,698; 1,83823
 336,00;   15,712;    0,708; 1277,487; 1,93316
 337,00;   16,512;    1,205; 1232,001; 1,90541
 338,00;   15,131;   -1,219; 1175,213; 1,85734
 339,00;   12,504;   -3,586; 1127,380; 1,84797
 340,00;    9,813;   -4,343; 1081,856; 1,88806
 341,00;    6,161;   -3,806; 1004,092; 2,00777
 342,00;    4,931;  -12,101;  930,950; 1,74586
 343,00;    6,737;  -11,448;  861,733; 1,68507
 344,00;    6,638;   -4,057;  809,395; 1,88129
 345,00;    8,489;   -8,337;  772,406; 1,66846
 346,00;    7,282;   -8,092;  741,157; 1,68827
 347,00;    2,984;   -7,688;  701,462; 1,82726
 348,00;    2,206;  -13,141;  647,679; 1,63412
 349,00;    4,827;   -7,082;  587,305; 1,69932
 350,00;    6,886;   -5,630;  534,752; 1,64066
 351,00;    4,824;   -7,382;  481,978; 1,60753
 352,00;    3,866;  -12,279;  439,355; 1,44730
 353,00;    1,569;  -15,284;  399,760; 1,39440
 354,00;    1,874;   -9,269;  383,478; 1,54928
 355,00;    0,604;   -1,932;  396,986; 2,28693
 356,00;    2,961;   -2,418;  413,296; 1,89318
 357,00;    3,677;   -3,789;  439,508; 1,77380
 358,00;    4,072;   -6,998;  458,717; 1,62510
 359,00;    5,074;   -8,689;  487,927; 1,55750
 360,00;    3,436;   -4,752;  544,401; 1,83064
 361,00;    3,586;   -5,061;  597,993; 1,84350
 362,00;    4,262;   -4,907;  648,496; 1,85379
 363,00;    4,399;   -4,090;  707,818; 1,96371
 364,00;    7,913;   -7,558;  775,502; 1,70903
 365,00;    8,325;  -10,641;  831,625; 1,64811
 366,00;    6,037;   -8,775;  920,868; 1,79896
 367,00;    6,128;   -6,879; 1056,471; 1,91470
 368,00;    7,346;   -8,703; 1185,036; 1,87141
 369,00;    9,566;   -8,421; 1296,593; 1,86071
 370,00;   12,394;  -10,543; 1385,593; 1,78435
 371,00;   13,935;  -16,627; 1452,033; 1,68196
 372,00;   14,682;   -7,774; 1534,751; 1,83811
 373,00;   16,895;   -4,923; 1591,803; 1,86634
 374,00;   17,584;  -15,379; 1610,616; 1,69309
 375,00;   13,636;  -15,285; 1623,471; 1,75397
 376,00;   13,289;   -9,033; 1698,587; 1,88415
 377,00;   14,505;   -8,862; 1853,555; 1,90165
 378,00;   17,411;   -6,584; 2013,560; 1,92526
 379,00;   21,144;   -7,638; 2150,082; 1,87795
 380,00;   24,266;  -12,473; 2261,866; 1,79189
 381,00;   26,688;   -7,147; 2295,561; 1,83324
 382,00;   27,460;    5,086; 2299,465; 2,01123
 383,00;   32,107;    1,308; 2299,177; 1,88431
 384,00;   35,977;   -5,310; 2351,741; 1,75666
 385,00;   34,122;    0,948; 2464,616; 1,87200
 386,00;   36,055;   -3,504; 2583,533; 1,81633
 387,00;   38,132;   -6,720; 2716,274; 1,78328
 388,00;   37,659;   -6,218; 2856,515; 1,81453
 389,00;   40,678;  -12,132; 2942,403; 1,74790
 390,00;   41,967;   -7,023; 2934,016; 1,77908
 391,00;   36,297;   -1,384; 2844,094; 1,87804
 392,00;   36,911;   -2,249; 2806,713; 1,85573
 393,00;   41,204;   -4,228; 2869,424; 1,80137
 394,00;   42,590;   -8,607; 3007,959; 1,77027
 395,00;   42,309;   -5,264; 3082,692; 1,81244
 396,00;   44,762;   -7,761; 3076,515; 1,76992
 397,00;   48,905;   -8,586; 3121,901; 1,73611
 398,00;   48,155;  -12,390; 3267,711; 1,73380
 399,00;   49,383;  -13,021; 3381,833; 1,73575
 400,00;   47,123;  -15,722; 3309,831; 1,72356
 401,00;   47,822;  -14,592; 3096,526; 1,69775
 402,00;   44,927;   -7,684; 2882,988; 1,74002
 403,00;   40,126;   -8,754; 2639,478; 1,73376
 404,00;   40,228;  -10,004; 2483,190; 1,69582
 405,00;   43,882;   -9,671; 2507,238; 1,67211
 406,00;   50,596;   -3,556; 2651,722; 1,69037
 407,00;   53,152;   -2,662; 2840,592; 1,70710
 408,00;   54,137;   -7,133; 2939,973; 1,68227
 409,00;   58,426;   -5,255; 2972,549; 1,66992
 410,00;   58,484;   -5,759; 2963,190; 1,66480
 411,00;   59,819;   -7,737; 2929,739; 1,63832
 412,00;   60,128;   -7,142; 2910,978; 1,63733
 413,00;   62,006;   -5,884; 2892,697; 1,63041
 414,00;   65,275;   -9,476; 2957,513; 1,59925
 415,00;   67,723;  -16,467; 2995,372; 1,55358
 416,00;   72,433;  -12,680; 3015,911; 1,55145
 417,00;   76,447;   -3,402; 3031,774; 1,57994
 418,00;   78,759;   -3,362; 3034,698; 1,56816
 419,00;   80,239;   -9,366; 3012,670; 1,52798
 420,00;   81,375;  -11,234; 3044,990; 1,51854
 421,00;   86,820;   -5,275; 3190,919; 1,54040
 422,00;   95,646;   -3,605; 3493,691; 1,54693
 423,00;  102,314;   -7,060; 3634,885; 1,52244
 424,00;  105,198;   -6,289; 3566,798; 1,50591
 425,00;  104,268;    4,666; 3409,908; 1,53393
 426,00;  100,640;    2,397; 3231,063; 1,51669
 427,00;  101,641;   -6,573; 3247,225; 1,47824
 428,00;  108,209;   -9,654; 3361,223; 1,45636
 429,00;  115,359;   -7,122; 3494,970; 1,45630
 430,00;  124,867;  -11,670; 3622,480; 1,42537
 431,00;  129,371;  -12,043; 3603,290; 1,40763
 432,00;  124,330;  -11,977; 3253,397; 1,37931
 433,00;  117,411;  -10,906; 2997,023; 1,37000
 434,00;  123,898;   -8,549; 3129,997; 1,37485
 435,00;  135,505;  -14,388; 3304,020; 1,34515
 436,00;  144,594;  -12,778; 3397,495; 1,33588
 437,00;  153,694;   -6,360; 3377,317; 1,32513
 438,00;  165,224;   -3,534; 3361,478; 1,29973
 439,00;  171,915;   -6,522; 3402,115; 1,28115
 440,00;  178,178;   -7,286; 3435,907; 1,26876
 441,00;  190,599;   -7,103; 3591,068; 1,26019
 442,00;  211,806;   -8,856; 3805,895; 1,23774
 443,00;  218,814;   -4,881; 3753,064; 1,22528
 444,00;  223,796;   -1,714; 3631,935; 1,20716
 445,00;  234,101;    3,020; 3595,120; 1,19158
 446,00;  243,483;   -4,074; 3530,329; 1,15480
 447,00;  249,178;   -6,334; 3501,782; 1,13772
 448,00;  250,454;   -7,872; 3420,360; 1,12295
 449,00;  258,786;  -12,145; 3356,402; 1,09459
 450,00;  265,699;  -10,705; 3322,353; 1,08129
 451,00;  272,015;  -10,532; 3247,301; 1,06184
 452,00;  274,025;  -16,382; 3156,368; 1,03842
 453,00;  271,256;  -11,058; 3023,094; 1,03128
 454,00;  260,961;  -12,945; 2856,814; 1,02019
 455,00;  260,903;  -14,881; 2755,078; 1,00190
 456,00;  270,705;  -10,508; 2745,280; 0,99122
 457,00;  290,073;   -7,467; 2847,019; 0,98212
 458,00;  318,957;  -10,678; 3020,929; 0,96382
 459,00;  346,440;   -9,973; 3203,058; 0,95499
 460,00;  358,706;   -9,300; 3219,266; 0,94315
 461,00;  351,503;   -8,319; 3059,651; 0,93072
 462,00;  337,526;   -9,313; 2857,487; 0,91724
 463,00;  342,072;  -10,976; 2839,095; 0,90702
 464,00;  389,749;  -15,106; 3134,727; 0,89107
 465,00;  450,593;  -15,409; 3511,408; 0,87902
 466,00;  491,622;  -20,068; 3739,632; 0,86614
 467,00;  476,208;  -14,511; 3511,085; 0,85635
 468,00;  463,420;   -9,502; 3345,124; 0,85084
 469,00;  461,902;  -13,627; 3257,294; 0,83744
 470,00;  439,491;  -15,833; 3003,849; 0,82162
 471,00;  426,753;  -20,796; 2862,397; 0,80903
 472,00;  444,641;  -11,138; 2894,237; 0,80445
 473,00;  483,234;  -11,180; 3050,835; 0,79196
 474,00;  530,540;  -17,800; 3278,143; 0,77898
 475,00;  573,142;  -16,909; 3488,858; 0,77393
 476,00;  624,563;  -13,534; 3719,202; 0,76717
 477,00;  667,438;  -11,855; 3913,733; 0,76185
 478,00;  705,744;  -17,773; 4083,843; 0,75354
 479,00;  750,763;  -20,915; 4243,418; 0,74244
 480,00;  813,035;  -12,331; 4504,834; 0,73823
 481,00;  877,975;  -12,545; 4773,978; 0,73041
 482,00;  923,561;  -16,990; 4906,575; 0,71891
 483,00;  961,889;  -14,279; 5008,325; 0,71141
 484,00; 1036,547;   -9,544; 5326,310; 0,70764
 485,00; 1454,522;  -14,238; 7382,775; 0,70222
 486,00; 2231,095;  -15,076;11241,032; 0,70001
 487,00; 2361,327;  -16,119;11714,737; 0,69307
 488,00; 1611,505;  -16,863; 7741,140; 0,67758
 489,00; 1180,558;  -14,834; 5481,045; 0,66245
 490,00; 1158,340;  -14,530; 5273,867; 0,65409
 491,00; 1182,876;  -16,528; 5319,739; 0,64827
 492,00; 1171,439;  -13,710; 5214,045; 0,64454
 493,00; 1180,927;  -14,332; 5207,335; 0,64035
 494,00; 1206,082;  -13,535; 5224,335; 0,63292
 495,00; 1181,418;  -18,889; 5022,020; 0,62320
 496,00; 1192,646;  -15,703; 5006,052; 0,61867
 497,00; 1236,137;  -10,372; 5122,189; 0,61464
 498,00; 1240,539;  -15,894; 5042,915; 0,60491
 499,00; 1293,515;  -14,955; 5163,378; 0,59744
 500,00; 1362,103;  -11,795; 5391,112; 0,59468
 501,00; 1394,755;  -11,973; 5450,382; 0,58918
 502,00; 1473,190;  -12,967; 5684,285; 0,58361
 503,00; 1530,152;  -19,120; 5839,288; 0,57766
 504,00; 1502,179;  -18,462; 5664,888; 0,57255
 505,00; 1465,320;  -17,752; 5414,838; 0,56384
 506,00; 1467,581;  -16,388; 5337,243; 0,55722
 507,00; 1446,888;  -10,229; 5188,188; 0,55236
 508,00; 1423,091;  -14,813; 5024,568; 0,54465
 509,00; 1432,330;  -13,014; 4992,347; 0,53946
 510,00; 1451,639;   -6,858; 4962,492; 0,53240
 511,00; 1487,858;  -11,858; 5024,168; 0,52608
 512,00; 1513,137;  -16,748; 5064,270; 0,52129
 513,00; 1499,139;  -13,864; 4941,569; 0,51524
 514,00; 1483,042;  -13,523; 4846,281; 0,51152
 515,00; 1457,245;  -11,826; 4715,788; 0,50760
 516,00; 1436,101;  -13,759; 4607,404; 0,50343
 517,00; 1433,856;  -17,092; 4537,668; 0,49681
 518,00; 1429,616;  -20,937; 4455,376; 0,48938
 519,00; 1439,807;  -18,840; 4437,778; 0,48506
 520,00; 1426,748;  -11,403; 4370,895; 0,48390
 521,00; 1376,595;  -11,346; 4152,213; 0,47706
 522,00; 1339,139;  -14,725; 3992,780; 0,47128
 523,00; 1340,224;  -11,431; 3950,489; 0,46704
 524,00; 1369,809;  -17,254; 3999,226; 0,46175
 525,00; 1401,470;  -24,971; 4060,102; 0,45695
 526,00; 1441,376;  -22,901; 4148,885; 0,45470
 527,00; 1493,905;  -21,897; 4252,374; 0,45022
 528,00; 1550,837;  -14,782; 4362,094; 0,44648
 529,00; 1629,858;  -17,646; 4550,377; 0,44293
 530,00; 1710,302;  -13,862; 4692,046; 0,43609
 531,00; 1784,342;   -3,249; 4779,468; 0,42741
 532,00; 1848,667;  -11,141; 4973,752; 0,42815
 533,00; 2004,975;  -15,260; 5403,023; 0,42847
 534,00; 2207,444;   -6,687; 5913,962; 0,42717
 535,00; 2342,203;  -11,531; 6210,100; 0,42216
 536,00; 2373,287;  -18,516; 6245,139; 0,41810
 537,00; 2364,006;  -15,352; 6181,225; 0,41569
 538,00; 2437,439;  -15,395; 6321,693; 0,41222
 539,00; 2567,087;  -12,629; 6643,743; 0,41167
 540,00; 2616,557;  -10,241; 6740,501; 0,40993
 541,00; 2644,315;  -13,484; 6723,252; 0,40393
 542,00; 2726,526;  -18,421; 6903,431; 0,40169
 543,00; 2818,720;  -20,691; 7127,511; 0,40097
 544,00; 2904,344;  -17,051; 7286,185; 0,39793
 545,00; 2976,675;   -9,046; 7423,464; 0,39609
 546,00; 3006,594;   -9,323; 7421,868; 0,39164
 547,00; 3107,388;  -13,502; 7607,300; 0,38772
 548,00; 3312,681;  -13,992; 8113,551; 0,38795
 549,00; 3403,265;  -12,727; 8286,427; 0,38552
 550,00; 3331,844;  -16,006; 8032,987; 0,38097
 551,00; 3330,870;  -13,189; 7969,938; 0,37790
 552,00; 3473,132;  -16,685; 8286,236; 0,37644
 553,00; 3660,292;  -21,350; 8694,008; 0,37425
 554,00; 3781,964;  -16,931; 8919,367; 0,37151
 555,00; 3918,488;  -18,518; 9155,757; 0,36741
 556,00; 4093,213;  -13,102; 9553,477; 0,36731
 557,00; 4233,296;   -9,811; 9800,776; 0,36402
 558,00; 4352,700;   -8,930; 9970,181; 0,35945
 559,00; 4492,740;  -11,858;10240,403; 0,35717
 560,00; 4716,438;  -16,504;10684,674; 0,35430
 561,00; 4977,811;  -14,628;11208,934; 0,35182
 562,00; 5119,583;  -15,673;11487,554; 0,35026
 563,00; 5213,392;  -14,856;11637,709; 0,34807
 564,00; 5345,267;  -16,812;11880,670; 0,34612
 565,00; 5461,038;  -15,730;12082,792; 0,34421
 566,00; 5576,192;  -15,900;12278,121; 0,34212
 567,00; 5786,125;  -11,583;12675,940; 0,34013
 568,00; 6111,850;   -7,869;13332,022; 0,33842
 569,00; 6536,271;   -5,730;14188,296; 0,33640
 570,00; 7017,085;  -10,309;15210,616; 0,33565
 571,00; 7443,795;  -17,000;16076,400; 0,33386
 572,00; 7708,594;  -17,954;16619,176; 0,33309
 573,00; 7857,238;  -14,449;16901,977; 0,33224
 574,00; 8148,804;  -11,467;17441,107; 0,33016
 575,00; 8431,753;  -13,916;17966,367; 0,32816
 576,00; 8510,714;  -14,843;18044,579; 0,32598
 577,00; 8755,949;  -10,634;18456,108; 0,32356
 578,00; 9064,099;  -10,399;19042,406; 0,32214
 579,00; 9121,446;  -17,268;19117,959; 0,32095
 580,00; 9080,312;  -13,960;18960,108; 0,31939
 581,00; 9433,140;  -10,029;19606,160; 0,31750
 582,00; 9810,017;  -12,429;20284,846; 0,31522
 583,00; 9523,643;  -13,844;19554,463; 0,31211
 584,00; 9125,956;  -17,372;18617,714; 0,30922
 585,00; 9221,318;  -25,208;18816,751; 0,30915
 586,00; 9346,400;  -15,595;18997,627; 0,30769
 587,00; 9282,686;  -10,533;18754,884; 0,30519
 588,00; 9299,625;  -15,525;18714,777; 0,30335
 589,00; 9288,442;  -15,487;18603,815; 0,30130
 590,00; 9247,006;  -18,767;18447,244; 0,29949
 591,00; 9328,142;  -16,449;18473,971; 0,29639
 592,00; 9548,442;   -8,581;18849,753; 0,29518
 593,00; 9880,849;  -12,360;19457,475; 0,29403
 594,00;10110,086;  -13,005;19859,104; 0,29293
 595,00;10214,572;  -14,524;19976,016; 0,29099
 596,00;10327,277;   -7,757;20124,980; 0,28959
 597,00;10393,789;   -5,089;20183,010; 0,28811
 598,00;10502,760;  -12,065;20310,181; 0,28617
 599,00;10706,427;   -7,287;20673,901; 0,28564
 600,00;10840,325;   -8,766;20844,319; 0,28378
 601,00;10926,069;  -11,540;20862,079; 0,28068
 602,00;10947,999;   -5,939;20842,218; 0,27950
 603,00;10916,752;   -2,210;20699,316; 0,27782
 604,00;10836,382;   -5,324;20437,106; 0,27543
 605,00;10661,073;  -14,292;20024,277; 0,27348
 606,00;10470,404;  -15,017;19574,809; 0,27144
 607,00;10293,897;  -14,587;19136,066; 0,26898
 608,00;10126,011;  -12,773;18685,116; 0,26580
 609,00;10192,374;  -16,561;18669,596; 0,26254
 610,00;10560,290;  -20,532;19227,562; 0,25987
 611,00;10854,336;  -14,563;19708,567; 0,25879
 612,00;10989,978;  -10,126;19927,772; 0,25828
 613,00;11137,499;  -13,479;20125,400; 0,25672
 614,00;11328,502;  -14,956;20344,921; 0,25403
 615,00;11435,018;  -12,651;20525,448; 0,25384
 616,00;11532,407;  -13,048;20768,972; 0,25528
 617,00;11613,125;  -19,511;20849,980; 0,25383
 618,00;11660,724;  -20,450;20879,221; 0,25265
 619,00;11678,310;  -15,923;20833,678; 0,25113
 620,00;11728,731;  -15,360;20819,260; 0,24897
 621,00;11786,731;  -16,345;20860,534; 0,24767
 622,00;11760,531;  -16,699;20775,934; 0,24687
 623,00;11819,298;  -14,267;20835,482; 0,24599
 624,00;11883,461;  -19,464;20909,054; 0,24508
 625,00;11920,596;  -18,776;20991,974; 0,24546
 626,00;11961,817;   -6,440;21019,149; 0,24472
 627,00;11978,179;  -15,255;20952,900; 0,24262
 628,00;12055,495;  -25,107;20993,256; 0,24051
 629,00;12113,724;  -23,010;21045,487; 0,23953
 630,00;12140,278;  -17,856;21059,936; 0,23896
 631,00;12170,886;  -19,559;21073,856; 0,23813
 632,00;12216,453;  -24,451;21153,238; 0,23806
 633,00;12269,620;  -26,907;21268,144; 0,23850
 634,00;12353,020;  -21,902;21329,999; 0,23689
 635,00;12495,715;  -20,876;21457,764; 0,23452
 636,00;12630,197;  -15,618;21659,833; 0,23402
 637,00;12728,526;  -16,172;21865,529; 0,23475
 638,00;12851,835;  -19,353;21973,916; 0,23267
 639,00;12959,479;  -19,141;22156,721; 0,23265
 640,00;13069,783;  -21,099;22330,718; 0,23235
 641,00;13204,302;  -22,108;22450,339; 0,23021
 642,00;13322,741;  -21,492;22582,722; 0,22890
 643,00;13454,121;  -21,135;22724,947; 0,22737
 644,00;13569,981;  -21,564;22820,297; 0,22546
 645,00;13656,955;  -17,773;22846,115; 0,22323
 646,00;13763,132;  -17,896;22901,548; 0,22092
 647,00;13823,892;  -28,653;22866,049; 0,21821
 648,00;13898,456;  -25,954;22900,165; 0,21655
 649,00;13945,818;  -21,293;22833,432; 0,21387
 650,00;13965,277;  -17,517;22698,203; 0,21073
 651,00;13980,025;  -17,699;22602,786; 0,20844
 652,00;13988,742;  -22,329;22449,849; 0,20517
 653,00;13991,884;  -19,047;22319,710; 0,20259
 654,00;14022,886;  -15,194;22280,138; 0,20091
 655,00;14709,673;  -12,581;23349,407; 0,20051
 656,00;16109,839;  -13,470;25714,129; 0,20294
 657,00;16197,869;  -15,521;25789,901; 0,20183
 658,00;14647,856;  -17,949;23177,968; 0,19909
 659,00;13920,405;  -18,572;21851,915; 0,19563
 660,00;13933,035;  -22,625;21800,503; 0,19417
